#FIG 3.2
Landscape
Center
Metric
Letter  
100.00
Single
-2
1200 2
6 2340 2520 5760 4320
6 2655 2790 5490 4095
6 2880 3150 4815 4095
4 0 0 0 0 0 16 0.0000 4 225 1905 2880 3345 Rayleigh scattering\001
4 0 0 0 0 0 16 0.0000 4 225 1425 2880 3675 Mie scattering\001
4 0 0 0 0 0 16 0.0000 4 225 1725 2880 4005 Ozone absorption\001
-6
4 0 0 0 0 0 20 0.0000 4 255 2820 2655 3015 Atmospheric Absorption\001
-6
2 2 0 2 0 7 0 0 -1 0.000 0 0 -1 0 0 5
	 2385 2562 5714 2562 5714 4277 2385 4277 2385 2562
-6
6 6075 2385 9765 4545
6 6525 2700 9360 4230
6 6750 3060 8325 4230
4 0 0 0 0 0 16 0.0000 4 225 1365 6750 3225 Incident point\001
4 0 0 0 0 0 16 0.0000 4 225 1185 6750 3555 Reflectivity\001
4 0 0 0 0 0 16 0.0000 4 225 1200 6750 3885 Black-spots\001
4 0 0 0 0 0 16 0.0000 4 165 1545 6750 4215 Axes-deviation\001
-6
4 0 0 0 0 0 20 0.0000 4 195 2835 6525 2895 Reflection in the mirrors\001
-6
2 2 0 2 0 7 0 0 -1 0.000 0 0 -1 0 0 5
	 6120 2436 9719 2436 9719 4493 6120 4493 6120 2436
-6
6 10125 2925 13050 3915
2 2 0 2 0 7 0 0 -1 0.000 0 0 -1 0 0 5
	 10170 2961 13005 2961 13005 3870 10170 3870 10170 2961
4 0 0 0 0 0 20 0.0000 4 255 1530 10845 3645 camera plane\001
4 0 0 0 0 0 20 0.0000 4 255 1830 10665 3330 Trace photon to\001
-6
6 6300 5850 9135 6480
2 2 0 2 0 7 0 0 -1 0.000 0 0 -1 0 0 5
	 6345 5884 9089 5884 9089 6445 6345 6445 6345 5884
4 0 0 0 0 0 20 0.0000 4 255 2115 6660 6255 Save to output file\001
-6
2 2 0 2 0 7 0 0 -1 0.000 0 0 7 0 0 5
	 3015 2025 765 2025 765 1125 3015 1125 3015 2025
2 1 0 2 0 7 0 0 -1 0.000 0 0 7 0 0 3
	 13500 4500 13275 4725 13050 5175
2 1 0 2 0 7 0 0 -1 0.000 0 0 7 0 0 3
	 1800 4500 2025 4725 2250 5175
2 1 0 4 0 7 0 0 -1 0.000 0 0 -1 0 0 2
	 2250 5175 13050 5175
2 1 0 2 0 7 0 0 -1 0.000 0 0 -1 1 0 2
	2 1 2.00 120.00 240.00
	 9720 3375 10170 3375
2 1 0 2 0 7 0 0 -1 0.000 0 0 -1 1 0 2
	2 1 2.00 120.00 240.00
	 5715 3420 6120 3420
2 1 0 2 0 7 0 0 -1 0.000 0 0 -1 1 0 3
	2 1 2.00 120.00 240.00
	 1800 2025 1800 3285 2385 3285
2 1 0 2 0 7 0 0 -1 0.000 0 0 -1 1 0 5
	2 1 2.00 120.00 240.00
	 13005 3375 13275 3375 13275 1800 3600 1800 3600 2565
2 1 0 2 0 7 0 0 -1 0.000 0 0 -1 1 0 2
	2 1 2.00 120.00 240.00
	 7650 5175 7650 5850
4 0 0 0 0 0 20 0.0000 4 255 1950 945 1485 For each photon \001
4 0 0 0 0 0 20 0.0000 4 195 1260 1215 1800 in each file\001
